#K-Path(1/A) Energy-Level(eV)
# NKPTS & NBANDS: 120  16
# Band-Index    1
   0.00000    -14.312595
   0.02918    -14.310273
   0.05835    -14.303311
   0.08753    -14.291733
   0.11670    -14.275578
   0.14588    -14.254902
   0.17505    -14.229773
   0.20423    -14.200281
   0.23340    -14.166532
   0.26258    -14.128641
   0.29175    -14.086748
   0.32093    -14.041014
   0.35010    -13.991604
   0.37928    -13.938713
   0.40845    -13.882554
   0.43763    -13.823360
   0.46680    -13.761386
   0.49598    -13.696910
   0.52515    -13.630238
   0.55433    -13.561691
   0.58350    -13.491632
   0.61268    -13.420443
   0.64185    -13.348526
   0.67103    -13.276301
   0.70020    -13.204262
   0.72938    -13.132912
   0.75855    -13.062758
   0.78773    -12.994369
   0.81690    -12.928324
   0.84608    -12.865195
   0.87525    -12.805616
   0.90443    -12.750165
   0.93360    -12.699478
   0.96278    -12.654144
   0.99195    -12.614709
   1.02113    -12.581677
   1.05030    -12.555482
   1.07948    -12.536503
   1.10865    -12.525012
   1.13783    -12.521160
   1.13783    -12.521160
   1.15451    -12.520824
   1.17118    -12.519829
   1.18786    -12.518171
   1.20454    -12.515861
   1.22122    -12.512910
   1.23790    -12.509317
   1.25458    -12.505109
   1.27125    -12.500303
   1.28793    -12.494914
   1.30461    -12.488978
   1.32129    -12.482503
   1.33797    -12.475532
   1.35465    -12.468092
   1.37132    -12.460221
   1.38800    -12.451944
   1.40468    -12.443317
   1.42136    -12.434367
   1.43804    -12.425135
   1.45472    -12.415681
   1.47139    -12.406050
   1.48807    -12.396292
   1.50475    -12.386464
   1.52143    -12.376625
   1.53811    -12.366831
   1.55479    -12.357136
   1.57146    -12.347611
   1.58814    -12.338318
   1.60482    -12.329323
   1.62150    -12.320696
   1.63818    -12.312503
   1.65486    -12.304821
   1.67153    -12.297715
   1.68821    -12.291265
   1.70489    -12.285547
   1.72157    -12.280616
   1.73825    -12.276558
   1.75493    -12.273443
   1.77160    -12.271343
   1.78828    -12.270319
   1.78828    -12.270319
   1.82163    -12.274740
   1.85499    -12.284522
   1.88834    -12.300086
   1.92169    -12.321740
   1.95504    -12.349693
   1.98839    -12.384064
   2.02174    -12.424850
   2.05510    -12.471927
   2.08845    -12.525070
   2.12180    -12.583920
   2.15515    -12.648054
   2.18850    -12.716948
   2.22185    -12.790043
   2.25521    -12.866688
   2.28856    -12.946224
   2.32191    -13.028004
   2.35526    -13.111343
   2.38861    -13.195596
   2.42196    -13.280127
   2.45531    -13.364287
   2.48867    -13.447511
   2.52202    -13.529237
   2.55537    -13.608959
   2.58872    -13.686171
   2.62207    -13.760431
   2.65542    -13.831316
   2.68878    -13.898441
   2.72213    -13.961456
   2.75548    -14.020038
   2.78883    -14.073897
   2.82218    -14.122776
   2.85553    -14.166447
   2.88889    -14.204698
   2.92224    -14.237361
   2.95559    -14.264285
   2.98894    -14.285352
   3.02229    -14.300466
   3.05564    -14.309560
   3.08899    -14.312594
 
# Band-Index    2
   3.08899    -13.081638
   3.05564    -13.080198
   3.02229    -13.075893
   2.98894    -13.068746
   2.95559    -13.058788
   2.92224    -13.046060
   2.88889    -13.030633
   2.85553    -13.012574
   2.82218    -12.991971
   2.78883    -12.968925
   2.75548    -12.943550
   2.72213    -12.915979
   2.68878    -12.886345
   2.65542    -12.854800
   2.62207    -12.821519
   2.58872    -12.786679
   2.55537    -12.750474
   2.52202    -12.713091
   2.48867    -12.674794
   2.45531    -12.635781
   2.42196    -12.596301
   2.38861    -12.556605
   2.35526    -12.516957
   2.32191    -12.477624
   2.28856    -12.438860
   2.25521    -12.401011
   2.22185    -12.364321
   2.18850    -12.329092
   2.15515    -12.295599
   2.12180    -12.264100
   2.08845    -12.234865
   2.05510    -12.208099
   2.02174    -12.184068
   1.98839    -12.162921
   1.95504    -12.144799
   1.92169    -12.129815
   1.88834    -12.117982
   1.85499    -12.109312
   1.82163    -12.103778
   1.78828    -12.101227
   1.78828    -12.101227
   1.77160    -12.101829
   1.75493    -12.103075
   1.73825    -12.104946
   1.72157    -12.107405
   1.70489    -12.110418
   1.68821    -12.113938
   1.67153    -12.117947
   1.65486    -12.122405
   1.63818    -12.127262
   1.62150    -12.132473
   1.60482    -12.137986
   1.58814    -12.143770
   1.57146    -12.149781
   1.55479    -12.155975
   1.53811    -12.162320
   1.52143    -12.168756
   1.50475    -12.175251
   1.48807    -12.181768
   1.47139    -12.188260
   1.45472    -12.194691
   1.43804    -12.201014
   1.42136    -12.207215
   1.40468    -12.213251
   1.38800    -12.219092
   1.37132    -12.224708
   1.35465    -12.230056
   1.33797    -12.235120
   1.32129    -12.239879
   1.30461    -12.244318
   1.28793    -12.248388
   1.27125    -12.252084
   1.25458    -12.255395
   1.23790    -12.258298
   1.22122    -12.260767
   1.20454    -12.262800
   1.18786    -12.264390
   1.17118    -12.265534
   1.15451    -12.266218
   1.13783    -12.266445
   1.13783    -12.266445
   1.10865    -12.268080
   1.07948    -12.272917
   1.05030    -12.280988
   1.02113    -12.292157
   0.99195    -12.306250
   0.96278    -12.323168
   0.93360    -12.342697
   0.90443    -12.364662
   0.87525    -12.388824
   0.84608    -12.414940
   0.81690    -12.442800
   0.78773    -12.472106
   0.75855    -12.502618
   0.72938    -12.534103
   0.70020    -12.566315
   0.67103    -12.598975
   0.64185    -12.631874
   0.61268    -12.664782
   0.58350    -12.697490
   0.55433    -12.729816
   0.52515    -12.761545
   0.49598    -12.792490
   0.46680    -12.822500
   0.43763    -12.851423
   0.40845    -12.879111
   0.37928    -12.905426
   0.35010    -12.930255
   0.32093    -12.953480
   0.29175    -12.975012
   0.26258    -12.994747
   0.23340    -13.012615
   0.20423    -13.028543
   0.17505    -13.042478
   0.14588    -13.054351
   0.11670    -13.064124
   0.08753    -13.071762
   0.05835    -13.077240
   0.02918    -13.080536
   0.00000    -13.081638
 
# Band-Index    3
   0.00000     -5.828761
   0.02918     -5.825974
   0.05835     -5.817636
   0.08753     -5.803827
   0.11670     -5.784730
   0.14588     -5.760483
   0.17505     -5.731318
   0.20423     -5.697480
   0.23340     -5.659568
   0.26258     -5.617975
   0.29175     -5.573324
   0.32093     -5.526353
   0.35010     -5.477973
   0.37928     -5.429326
   0.40845     -5.381790
   0.43763     -5.336985
   0.46680     -5.296847
   0.49598     -5.263686
   0.52515     -5.239647
   0.55433     -5.226977
   0.58350     -5.227251
   0.61268     -5.241066
   0.64185     -5.267810
   0.67103     -5.305907
   0.70020     -5.352942
   0.72938     -5.406548
   0.75855     -5.464446
   0.78773     -5.524578
   0.81690     -5.585265
   0.84608     -5.645023
   0.87525     -5.702590
   0.90443     -5.756871
   0.93360     -5.807001
   0.96278     -5.852231
   0.99195     -5.891763
   1.02113     -5.925011
   1.05030     -5.951413
   1.07948     -5.970569
   1.10865     -5.982230
   1.13783     -5.986114
   1.13783     -5.986114
   1.15451     -5.985062
   1.17118     -5.981932
   1.18786     -5.976705
   1.20454     -5.969394
   1.22122     -5.960014
   1.23790     -5.948557
   1.25458     -5.935059
   1.27125     -5.919537
   1.28793     -5.902001
   1.30461     -5.882491
   1.32129     -5.861032
   1.33797     -5.837653
   1.35465     -5.812376
   1.37132     -5.785250
   1.38800     -5.756311
   1.40468     -5.725617
   1.42136     -5.693189
   1.43804     -5.659062
   1.45472     -5.623299
   1.47139     -5.585991
   1.48807     -5.547171
   1.50475     -5.506909
   1.52143     -5.465322
   1.53811     -5.422484
   1.55479     -5.426746
   1.57146     -5.449396
   1.58814     -5.471228
   1.60482     -5.492097
   1.62150     -5.511865
   1.63818     -5.530342
   1.65486     -5.547413
   1.67153     -5.562995
   1.68821     -5.576985
   1.70489     -5.589315
   1.72157     -5.599729
   1.73825     -5.608162
   1.75493     -5.614540
   1.77160     -5.618826
   1.78828     -5.620837
   1.78828     -5.620837
   1.82163     -5.612311
   1.85499     -5.593883
   1.88834     -5.565461
   1.92169     -5.526714
   1.95504     -5.477497
   1.98839     -5.418031
   2.02174     -5.348390
   2.05510     -5.305601
   2.08845     -5.333463
   2.12180     -5.349947
   2.15515     -5.355530
   2.18850     -5.350979
   2.22185     -5.337534
   2.25521     -5.316425
   2.28856     -5.289277
   2.32191     -5.258448
   2.35526     -5.226328
   2.38861     -5.196410
   2.42196     -5.172223
   2.45531     -5.157473
   2.48867     -5.155502
   2.52202     -5.167559
   2.55537     -5.193564
   2.58872     -5.231293
   2.62207     -5.278111
   2.65542     -5.331149
   2.68878     -5.387765
   2.72213     -5.445720
   2.75548     -5.503197
   2.78883     -5.558811
   2.82218     -5.611119
   2.85553     -5.659275
   2.88889     -5.702470
   2.92224     -5.740013
   2.95559     -5.771463
   2.98894     -5.796281
   3.02229     -5.814229
   3.05564     -5.825119
   3.08899     -5.828761
 
# Band-Index    4
   3.08899     -2.879432
   3.05564     -2.886510
   3.02229     -2.908290
   2.98894     -2.943968
   2.95559     -2.992608
   2.92224     -3.053038
   2.88889     -3.123803
   2.85553     -3.203196
   2.82218     -3.289549
   2.78883     -3.380915
   2.75548     -3.475343
   2.72213     -3.570655
   2.68878     -3.664561
   2.65542     -3.754496
   2.62207     -3.838024
   2.58872     -3.911917
   2.55537     -3.973167
   2.52202     -4.018752
   2.48867     -4.047080
   2.45531     -4.057686
   2.42196     -4.052423
   2.38861     -4.063214
   2.35526     -4.202197
   2.32191     -4.341250
   2.28856     -4.478039
   2.25521     -4.611069
   2.22185     -4.738899
   2.18850     -4.860552
   2.15515     -4.975069
   2.12180     -5.081657
   2.08845     -5.179806
   2.05510     -5.268793
   2.02174     -5.266138
   1.98839     -5.215192
   1.95504     -5.153342
   1.92169     -5.081949
   1.88834     -5.003396
   1.85499     -4.922829
   1.82163     -4.850488
   1.78828     -4.806046
   1.78828     -4.806046
   1.77160     -4.818043
   1.75493     -4.841831
   1.73825     -4.874558
   1.72157     -4.913461
   1.70489     -4.956433
   1.68821     -5.001934
   1.67153     -5.048927
   1.65486     -5.096738
   1.63818     -5.144787
   1.62150     -5.192717
   1.60482     -5.240236
   1.58814     -5.287131
   1.57146     -5.333221
   1.55479     -5.378348
   1.53811     -5.403386
   1.52143     -5.379600
   1.50475     -5.355420
   1.48807     -5.331058
   1.47139     -5.306696
   1.45472     -5.282485
   1.43804     -5.258483
   1.42136     -5.235038
   1.40468     -5.212175
   1.38800     -5.190039
   1.37132     -5.168883
   1.35465     -5.148672
   1.33797     -5.129582
   1.32129     -5.111700
   1.30461     -5.095185
   1.28793     -5.080006
   1.27125     -5.066294
   1.25458     -5.054104
   1.23790     -5.043470
   1.22122     -5.034409
   1.20454     -5.026948
   1.18786     -5.021130
   1.17118     -5.016968
   1.15451     -5.014466
   1.13783     -5.013626
   1.13783     -5.013626
   1.10865     -5.009577
   1.07948     -4.997359
   1.05030     -4.977232
   1.02113     -4.949352
   0.99195     -4.913628
   0.96278     -4.870669
   0.93360     -4.820637
   0.90443     -4.764017
   0.87525     -4.701149
   0.84608     -4.632385
   0.81690     -4.558368
   0.78773     -4.479490
   0.75855     -4.396247
   0.72938     -4.309182
   0.70020     -4.218864
   0.67103     -4.128779
   0.64185     -4.117419
   0.61268     -4.099051
   0.58350     -4.071133
   0.55433     -4.032257
   0.52515     -3.982307
   0.49598     -3.921981
   0.46680     -3.852992
   0.43763     -3.777381
   0.40845     -3.696800
   0.37928     -3.613184
   0.35010     -3.528238
   0.32093     -3.443392
   0.29175     -3.360261
   0.26258     -3.280123
   0.23340     -3.204244
   0.20423     -3.133879
   0.17505     -3.070098
   0.14588     -3.014131
   0.11670     -2.966828
   0.08753     -2.929079
   0.05835     -2.901564
   0.02918     -2.884881
   0.00000     -2.879432
 
# Band-Index    5
   0.00000     -2.879319
   0.02918     -2.876699
   0.05835     -2.868924
   0.08753     -2.856072
   0.11670     -2.838223
   0.14588     -2.815374
   0.17505     -2.787623
   0.20423     -2.755203
   0.23340     -2.718206
   0.26258     -2.723084
   0.29175     -2.822700
   0.32093     -2.922886
   0.35010     -3.023605
   0.37928     -3.124678
   0.40845     -3.226097
   0.43763     -3.327728
   0.46680     -3.429472
   0.49598     -3.531190
   0.52515     -3.632605
   0.55433     -3.733504
   0.58350     -3.833565
   0.61268     -3.932511
   0.64185     -4.029958
   0.67103     -4.125391
   0.70020     -4.135325
   0.72938     -4.140386
   0.75855     -4.146004
   0.78773     -4.153659
   0.81690     -4.164133
   0.84608     -4.177495
   0.87525     -4.193469
   0.90443     -4.211257
   0.93360     -4.229947
   0.96278     -4.248649
   0.99195     -4.266141
   1.02113     -4.281809
   1.05030     -4.294719
   1.07948     -4.304373
   1.10865     -4.310545
   1.13783     -4.312523
   1.13783     -4.312523
   1.15451     -4.312114
   1.17118     -4.311030
   1.18786     -4.309228
   1.20454     -4.306790
   1.22122     -4.303653
   1.23790     -4.299711
   1.25458     -4.295148
   1.27125     -4.289968
   1.28793     -4.284192
   1.30461     -4.277987
   1.32129     -4.271141
   1.33797     -4.263855
   1.35465     -4.256160
   1.37132     -4.248173
   1.38800     -4.239768
   1.40468     -4.231190
   1.42136     -4.222367
   1.43804     -4.213410
   1.45472     -4.204465
   1.47139     -4.195517
   1.48807     -4.186704
   1.50475     -4.178144
   1.52143     -4.169946
   1.53811     -4.162337
   1.55479     -4.155327
   1.57146     -4.149269
   1.58814     -4.144438
   1.60482     -4.141225
   1.62150     -4.140147
   1.63818     -4.141820
   1.65486     -4.147115
   1.67153     -4.156971
   1.68821     -4.172104
   1.70489     -4.192847
   1.72157     -4.218161
   1.73825     -4.245938
   1.75493     -4.272617
   1.77160     -4.293831
   1.78828     -4.305181
   1.78828     -4.305181
   1.82163     -4.259928
   1.85499     -4.183574
   1.88834     -4.097055
   1.92169     -4.015436
   1.95504     -3.949690
   1.98839     -3.903866
   2.02174     -3.874653
   2.05510     -3.857467
   2.08845     -3.849561
   2.12180     -3.849501
   2.15515     -3.856778
   2.18850     -3.870861
   2.22185     -3.891282
   2.25521     -3.917049
   2.28856     -3.946657
   2.32191     -3.978123
   2.35526     -4.008587
   2.38861     -4.034661
   2.42196     -3.927214
   2.45531     -3.797866
   2.48867     -3.678994
   2.52202     -3.572172
   2.55537     -3.475422
   2.58872     -3.384536
   2.62207     -3.295571
   2.65542     -3.206008
   2.68878     -3.114244
   2.72213     -3.019549
   2.75548     -2.921749
   2.78883     -2.820974
   2.82218     -2.717800
   2.85553     -2.719803
   2.88889     -2.760935
   2.92224     -2.796399
   2.95559     -2.825907
   2.98894     -2.849108
   3.02229     -2.865824
   3.05564     -2.875901
   3.08899     -2.879319
 
# Band-Index    6
   3.08899     -1.967296
   3.05564     -2.007838
   3.02229     -2.092125
   2.98894     -2.190149
   2.95559     -2.293634
   2.92224     -2.399515
   2.88889     -2.506317
   2.85553     -2.612651
   2.82218     -2.673510
   2.78883     -2.622838
   2.75548     -2.568409
   2.72213     -2.511335
   2.68878     -2.545257
   2.65542     -2.672901
   2.62207     -2.804055
   2.58872     -2.935381
   2.55537     -3.062449
   2.52202     -3.179594
   2.48867     -3.281239
   2.45531     -3.363889
   2.42196     -3.427817
   2.38861     -3.475396
   2.35526     -3.509313
   2.32191     -3.531622
   2.28856     -3.543567
   2.25521     -3.546349
   2.22185     -3.540551
   2.18850     -3.527001
   2.15515     -3.506209
   2.12180     -3.478846
   2.08845     -3.445798
   2.05510     -3.407798
   2.02174     -3.441026
   1.98839     -3.546025
   1.95504     -3.635399
   1.92169     -3.703384
   1.88834     -3.750466
   1.85499     -3.782105
   1.82163     -3.802866
   1.78828     -3.813612
   1.78828     -3.813612
   1.77160     -3.810200
   1.75493     -3.801610
   1.73825     -3.786462
   1.72157     -3.763175
   1.70489     -3.730437
   1.68821     -3.687558
   1.67153     -3.634866
   1.65486     -3.573395
   1.63818     -3.504505
   1.62150     -3.429578
   1.60482     -3.349785
   1.58814     -3.275295
   1.57146     -3.291307
   1.55479     -3.306739
   1.53811     -3.321457
   1.52143     -3.335281
   1.50475     -3.348139
   1.48807     -3.359995
   1.47139     -3.370802
   1.45472     -3.380483
   1.43804     -3.388978
   1.42136     -3.396364
   1.40468     -3.402592
   1.38800     -3.407626
   1.37132     -3.411745
   1.35465     -3.414765
   1.33797     -3.416867
   1.32129     -3.418119
   1.30461     -3.418686
   1.28793     -3.418541
   1.27125     -3.417980
   1.25458     -3.417050
   1.23790     -3.415912
   1.22122     -3.414677
   1.20454     -3.413425
   1.18786     -3.412346
   1.17118     -3.411522
   1.15451     -3.410920
   1.13783     -3.410720
   1.13783     -3.410720
   1.10865     -3.408805
   1.07948     -3.402996
   1.05030     -3.393442
   1.02113     -3.379936
   0.99195     -3.362610
   0.96278     -3.341532
   0.93360     -3.316685
   0.90443     -3.288204
   0.87525     -3.256090
   0.84608     -3.220495
   0.81690     -3.181470
   0.78773     -3.139150
   0.75855     -3.093639
   0.72938     -3.045118
   0.70020     -2.993569
   0.67103     -2.939328
   0.64185     -2.882542
   0.61268     -2.823335
   0.58350     -2.762099
   0.55433     -2.698833
   0.52515     -2.634180
   0.49598     -2.568358
   0.46680     -2.501610
   0.43763     -2.434442
   0.40845     -2.413197
   0.37928     -2.472506
   0.35010     -2.528899
   0.32093     -2.581979
   0.29175     -2.631414
   0.26258     -2.676849
   0.23340     -2.624226
   0.20423     -2.526400
   0.17505     -2.429788
   0.14588     -2.334800
   0.11670     -2.241990
   0.08753     -2.152537
   0.05835     -2.069097
   0.02918     -1.999281
   0.00000     -1.967296
 
# Band-Index    7
   0.00000     -1.756628
   0.02918     -1.760484
   0.05835     -1.772783
   0.08753     -1.792753
   0.11670     -1.820346
   0.14588     -1.854832
   0.17505     -1.895556
   0.20423     -1.942068
   0.23340     -1.993496
   0.26258     -2.049270
   0.29175     -2.108523
   0.32093     -2.170557
   0.35010     -2.234763
   0.37928     -2.300436
   0.40845     -2.367210
   0.43763     -2.351106
   0.46680     -2.286837
   0.49598     -2.220845
   0.52515     -2.153384
   0.55433     -2.085012
   0.58350     -2.016238
   0.61268     -1.947570
   0.64185     -1.879543
   0.67103     -1.812605
   0.70020     -1.756111
   0.72938     -1.798981
   0.75855     -1.839352
   0.78773     -1.876905
   0.81690     -1.911475
   0.84608     -1.942897
   0.87525     -1.971221
   0.90443     -1.996354
   0.93360     -2.018378
   0.96278     -2.037366
   0.99195     -2.053284
   1.02113     -2.066218
   1.05030     -2.076194
   1.07948     -2.083233
   1.10865     -2.087539
   1.13783     -2.088890
   1.13783     -2.088890
   1.15451     -2.088734
   1.17118     -2.088137
   1.18786     -2.087129
   1.20454     -2.085807
   1.22122     -2.084263
   1.23790     -2.082557
   1.25458     -2.080803
   1.27125     -2.079159
   1.28793     -2.077756
   1.30461     -2.076715
   1.32129     -2.076128
   1.33797     -2.076231
   1.35465     -2.077092
   1.37132     -2.078882
   1.38800     -2.159752
   1.40468     -2.250962
   1.42136     -2.343399
   1.43804     -2.436760
   1.45472     -2.530744
   1.47139     -2.625097
   1.48807     -2.719463
   1.50475     -2.813507
   1.52143     -2.906917
   1.53811     -2.999351
   1.55479     -3.090327
   1.57146     -3.179439
   1.58814     -3.266110
   1.60482     -3.258776
   1.62150     -3.242025
   1.63818     -3.225265
   1.65486     -3.208619
