#K-Path(1/A) Energy-Level(eV)
# NKPTS & NBANDS: 120  24
# Band-Index    1
   0.00000    -14.638659
   0.02129    -14.637474
   0.04257    -14.633923
   0.06386    -14.628021
   0.08514    -14.619796
   0.10643    -14.609289
   0.12771    -14.596546
   0.14900    -14.581630
   0.17028    -14.564612
   0.19157    -14.545574
   0.21285    -14.524615
   0.23414    -14.501840
   0.25543    -14.477363
   0.27671    -14.451318
   0.29800    -14.423845
   0.31928    -14.395099
   0.34057    -14.365247
   0.36185    -14.334459
   0.38314    -14.302927
   0.40442    -14.270844
   0.42571    -14.238414
   0.44700    -14.205861
   0.46828    -14.173390
   0.48957    -14.141236
   0.51085    -14.109618
   0.53214    -14.078769
   0.55342    -14.048909
   0.57471    -14.020266
   0.59599    -13.993051
   0.61728    -13.967465
   0.63856    -13.943705
   0.65985    -13.921946
   0.68114    -13.902356
   0.70242    -13.885077
   0.72371    -13.870236
   0.74499    -13.857950
   0.76628    -13.848303
   0.78756    -13.841363
   0.80885    -13.837175
   0.83013    -13.835777
   0.83013    -13.835777
   0.84242    -13.835694
   0.85471    -13.835439
   0.86701    -13.835013
   0.87930    -13.834420
   0.89159    -13.833659
   0.90388    -13.832740
   0.91617    -13.831663
   0.92846    -13.830436
   0.94075    -13.829058
   0.95304    -13.827542
   0.96533    -13.825886
   0.97762    -13.824105
   0.98991    -13.822196
   1.00220    -13.820181
   1.01449    -13.818060
   1.02678    -13.815849
   1.03907    -13.813553
   1.05136    -13.811190
   1.06365    -13.808763
   1.07594    -13.806290
   1.08823    -13.803787
   1.10052    -13.801267
   1.11281    -13.798737
   1.12510    -13.796218
   1.13739    -13.793726
   1.14968    -13.791272
   1.16197    -13.788882
   1.17426    -13.786570
   1.18655    -13.784348
   1.19884    -13.782238
   1.21114    -13.780263
   1.22343    -13.778438
   1.23572    -13.776784
   1.24801    -13.775330
   1.26030    -13.774087
   1.27259    -13.773079
   1.28488    -13.772332
   1.29717    -13.771865
   1.30946    -13.771701
   1.30946    -13.771701
   1.33404    -13.772375
   1.35862    -13.774537
   1.38320    -13.778366
   1.40778    -13.784035
   1.43236    -13.791705
   1.45694    -13.801537
   1.48152    -13.813654
   1.50610    -13.828169
   1.53068    -13.845152
   1.55526    -13.864635
   1.57985    -13.886617
   1.60443    -13.911048
   1.62901    -13.937835
   1.65359    -13.966842
   1.67817    -13.997880
   1.70275    -14.030731
   1.72733    -14.065142
   1.75191    -14.100832
   1.77649    -14.137495
   1.80107    -14.174823
   1.82565    -14.212485
   1.85023    -14.250156
   1.87481    -14.287516
   1.89939    -14.324253
   1.92397    -14.360065
   1.94856    -14.394664
   1.97314    -14.427783
   1.99772    -14.459173
   2.02230    -14.488594
   2.04688    -14.515843
   2.07146    -14.540730
   2.09604    -14.563083
   2.12062    -14.582751
   2.14520    -14.599610
   2.16978    -14.613551
   2.19436    -14.624486
   2.21894    -14.632346
   2.24352    -14.637079
   2.26810    -14.638659
 
# Band-Index    2
   2.26810    -11.400044
   2.24352    -11.399113
   2.21894    -11.396330
   2.19436    -11.391713
   2.16978    -11.385288
   2.14520    -11.377109
   2.12062    -11.367214
   2.09604    -11.355681
   2.07146    -11.342574
   2.04688    -11.327994
   2.02230    -11.312038
   1.99772    -11.294822
   1.97314    -11.276467
   1.94856    -11.257120
   1.92397    -11.236927
   1.89939    -11.216048
   1.87481    -11.194661
   1.85023    -11.172943
   1.82565    -11.151093
   1.80107    -11.129314
   1.77649    -11.112794
   1.75191    -11.123961
   1.72733    -11.132568
   1.70275    -11.138470
   1.67817    -11.141613
   1.65359    -11.141981
   1.62901    -11.139629
   1.60443    -11.134678
   1.57985    -11.127332
   1.55526    -11.117819
   1.53068    -11.106438
   1.50610    -11.093530
   1.48152    -11.079467
   1.45694    -11.064635
   1.43236    -11.049430
   1.40778    -11.034234
   1.38320    -11.019403
   1.35862    -11.005258
   1.33404    -10.992070
   1.30946    -10.980548
   1.30946    -10.980548
   1.29717    -10.986006
   1.28488    -10.992187
   1.27259    -10.998668
   1.26030    -11.005419
   1.24801    -11.012403
   1.23572    -11.019595
   1.22343    -11.026970
   1.21114    -11.034493
   1.19884    -11.042134
   1.18655    -11.049862
   1.17426    -11.057649
   1.16197    -11.065461
   1.14968    -11.073272
   1.13739    -11.081057
   1.12510    -11.088782
   1.11281    -11.096418
   1.10052    -11.103944
   1.08823    -11.111328
   1.07594    -11.118545
   1.06365    -11.125575
   1.05136    -11.132393
   1.03907    -11.138971
   1.02678    -11.145293
   1.01449    -11.151337
   1.00220    -11.157085
   0.98991    -11.162517
   0.97762    -11.167620
   0.96533    -11.172368
   0.95304    -11.176759
   0.94075    -11.180773
   0.92846    -11.184395
   0.91617    -11.187619
   0.90388    -11.190430
   0.89159    -11.192824
   0.87930    -11.194794
   0.86701    -11.196332
   0.85471    -11.197433
   0.84242    -11.198095
   0.83013    -11.198317
   0.83013    -11.198317
   0.80885    -11.198270
   0.78756    -11.198111
   0.76628    -11.197777
   0.74499    -11.197175
   0.72371    -11.196199
   0.70242    -11.194712
   0.68114    -11.192560
   0.65985    -11.189596
   0.63856    -11.185676
   0.61728    -11.180670
   0.59599    -11.174470
   0.57471    -11.166984
   0.55342    -11.158183
   0.53214    -11.148040
   0.51085    -11.136595
   0.48957    -11.124440
   0.46828    -11.129728
   0.44700    -11.147942
   0.42571    -11.166615
   0.40442    -11.185334
   0.38314    -11.203908
   0.36185    -11.222196
   0.34057    -11.240096
   0.31928    -11.257477
   0.29800    -11.274238
   0.27671    -11.290275
   0.25543    -11.305497
   0.23414    -11.319815
   0.21285    -11.333146
   0.19157    -11.345420
   0.17028    -11.356576
   0.14900    -11.366556
   0.12771    -11.375306
   0.10643    -11.382789
   0.08514    -11.388962
   0.06386    -11.393792
   0.04257    -11.397255
   0.02129    -11.399346
   0.00000    -11.400044
 
# Band-Index    3
   0.00000    -10.783790
   0.02129    -10.784918
   0.04257    -10.788288
   0.06386    -10.793859
   0.08514    -10.801547
   0.10643    -10.811245
   0.12771    -10.822830
   0.14900    -10.836155
   0.17028    -10.851043
   0.19157    -10.867311
   0.21285    -10.884748
   0.23414    -10.903157
   0.25543    -10.922305
   0.27671    -10.941980
   0.29800    -10.961965
   0.31928    -10.982038
   0.34057    -11.002005
   0.36185    -11.021640
   0.38314    -11.040771
   0.40442    -11.059192
   0.42571    -11.076737
   0.44700    -11.093234
   0.46828    -11.108226
   0.48957    -11.109304
   0.51085    -11.091995
   0.53214    -11.074538
   0.55342    -11.057623
   0.57471    -11.041444
   0.59599    -11.026141
   0.61728    -11.011819
   0.63856    -10.998590
   0.65985    -10.986534
   0.68114    -10.975739
   0.70242    -10.966269
   0.72371    -10.958177
   0.74499    -10.951517
   0.76628    -10.946322
   0.78756    -10.942593
   0.80885    -10.940348
   0.83013    -10.939600
   0.83013    -10.939600
   0.84242    -10.939567
   0.85471    -10.939452
   0.86701    -10.939262
   0.87930    -10.938999
   0.89159    -10.938663
   0.90388    -10.938270
   0.91617    -10.937822
   0.92846    -10.937330
   0.94075    -10.936796
   0.95304    -10.936240
   0.96533    -10.935658
   0.97762    -10.935075
   0.98991    -10.934494
   1.00220    -10.933942
   1.01449    -10.933433
   1.02678    -10.932983
   1.03907    -10.932599
   1.05136    -10.932314
   1.06365    -10.932136
   1.07594    -10.932084
   1.08823    -10.932190
   1.10052    -10.932469
   1.11281    -10.932935
   1.12510    -10.933614
   1.13739    -10.934526
   1.14968    -10.935686
   1.16197    -10.937118
   1.17426    -10.938840
   1.18655    -10.940861
   1.19884    -10.943203
   1.21114    -10.945879
   1.22343    -10.948899
   1.23572    -10.952269
   1.24801    -10.956001
   1.26030    -10.960097
   1.27259    -10.964555
   1.28488    -10.969374
   1.29717    -10.974541
   1.30946    -10.979651
   1.30946    -10.979651
   1.33404    -10.969492
   1.35862    -10.960442
   1.38320    -10.953166
   1.40778    -10.947825
   1.43236    -10.944539
   1.45694    -10.943405
   1.48152    -10.944484
   1.50610    -10.947799
   1.53068    -10.953346
   1.55526    -10.961082
   1.57985    -10.970930
   1.60443    -10.982772
   1.62901    -10.996478
   1.65359    -11.011885
   1.67817    -11.028819
   1.70275    -11.047083
   1.72733    -11.066481
   1.75191    -11.086792
   1.77649    -11.107774
   1.80107    -11.099166
   1.82565    -11.083378
   1.85023    -11.065642
   1.87481    -11.046241
   1.89939    -11.025484
   1.92397    -11.003700
   1.94856    -10.981221
   1.97314    -10.958424
   1.99772    -10.935676
   2.02230    -10.913329
   2.04688    -10.891752
   2.07146    -10.871301
   2.09604    -10.852326
   2.12062    -10.835141
   2.14520    -10.820054
   2.16978    -10.807320
   2.19436    -10.797169
   2.21894    -10.789784
   2.24352    -10.785295
   2.26810    -10.783790
 
# Band-Index    4
   2.26810     -6.183578
   2.24352     -6.182401
   2.21894     -6.179089
   2.19436     -6.173658
   2.16978     -6.166325
   2.14520     -6.157302
   2.12062     -6.146782
   2.09604     -6.135165
   2.07146     -6.122735
   2.04688     -6.110048
   2.02230     -6.097469
   1.99772     -6.085596
   1.97314     -6.074926
   1.94856     -6.066140
   1.92397     -6.059754
   1.89939     -6.056332
   1.87481     -6.056438
   1.85023     -6.060528
   1.82565     -6.068960
   1.80107     -6.081900
   1.77649     -6.099320
   1.75191     -6.121070
   1.72733     -6.146669
   1.70275     -6.175507
   1.67817     -6.206846
   1.65359     -6.239757
   1.62901     -6.273271
   1.60443     -6.306376
   1.57985     -6.338039
   1.55526     -6.367260
   1.53068     -6.393073
   1.50610     -6.414601
   1.48152     -6.431051
   1.45694     -6.441743
   1.43236     -6.446087
   1.40778     -6.443584
   1.38320     -6.433875
   1.35862     -6.416716
   1.33404     -6.391977
   1.30946     -6.359989
   1.30946     -6.359989
   1.29717     -6.377484
   1.28488     -6.396276
   1.27259     -6.415560
   1.26030     -6.435307
   1.24801     -6.455456
   1.23572     -6.475959
   1.22343     -6.496771
   1.21114     -6.517773
   1.19884     -6.538911
   1.18655     -6.560114
   1.17426     -6.581309
   1.16197     -6.602389
   1.14968     -6.623299
   1.13739     -6.643983
   1.12510     -6.664334
   1.11281     -6.684322
   1.10052     -6.703853
   1.08823     -6.722862
   1.07594     -6.741325
   1.06365     -6.759178
   1.05136     -6.776376
   1.03907     -6.792856
   1.02678     -6.808594
   1.01449     -6.823548
   1.00220     -6.837686
   0.98991     -6.850983
   0.97762     -6.863395
   0.96533     -6.874900
   0.95304     -6.885479
   0.94075     -6.895112
   0.92846     -6.903767
   0.91617     -6.911450
   0.90388     -6.918130
   0.89159     -6.923806
   0.87930     -6.928464
   0.86701     -6.932098
   0.85471     -6.934692
   0.84242     -6.936253
   0.83013     -6.936773
   0.83013     -6.936773
   0.80885     -6.933232
   0.78756     -6.922669
   0.76628     -6.905199
   0.74499     -6.881071
   0.72371     -6.850635
   0.70242     -6.814317
   0.68114     -6.772632
   0.65985     -6.726188
   0.63856     -6.675709
   0.61728     -6.621984
   0.59599     -6.565980
   0.57471     -6.508674
   0.55342     -6.451230
   0.53214     -6.394840
   0.51085     -6.340737
   0.48957     -6.290146
   0.46828     -6.244194
   0.44700     -6.203855
   0.42571     -6.169770
   0.40442     -6.142358
   0.38314     -6.121521
   0.36185     -6.106887
   0.34057     -6.097890
   0.31928     -6.093718
   0.29800     -6.093671
   0.27671     -6.096868
   0.25543     -6.102577
   0.23414     -6.110104
   0.21285     -6.118820
   0.19157     -6.128216
   0.17028     -6.137785
   0.14900     -6.147104
   0.12771     -6.155853
   0.10643     -6.163776
   0.08514     -6.170624
   0.06386     -6.176139
   0.04257     -6.180116
   0.02129     -6.182652
   0.00000     -6.183578
 
# Band-Index    5
   0.00000     -6.183452
   0.02129     -6.182312
   0.04257     -6.178432
   0.06386     -6.172039
   0.08514     -6.163083
   0.10643     -6.151616
   0.12771     -6.137594
   0.14900     -6.121210
   0.17028     -6.102436
   0.19157     -6.081269
   0.21285     -6.057851
   0.23414     -6.032175
   0.25543     -6.004396
   0.27671     -5.974562
   0.29800     -5.942799
   0.31928     -5.909165
   0.34057     -5.873826
   0.36185     -5.836893
   0.38314     -5.798580
   0.40442     -5.758929
   0.42571     -5.718190
   0.44700     -5.676587
   0.46828     -5.634262
   0.48957     -5.591512
   0.51085     -5.548579
   0.53214     -5.505737
   0.55342     -5.463287
   0.57471     -5.421581
   0.59599     -5.381032
   0.61728     -5.341910
   0.63856     -5.304667
   0.65985     -5.269722
   0.68114     -5.237507
   0.70242     -5.208432
   0.72371     -5.182969
   0.74499     -5.161525
   0.76628     -5.144402
   0.78756     -5.131958
   0.80885     -5.124370
   0.83013     -5.121828
   0.83013     -5.121828
   0.84242     -5.124306
   0.85471     -5.131651
   0.86701     -5.143695
   0.87930     -5.160177
   0.89159     -5.180747
   0.90388     -5.205069
   0.91617     -5.232723
   0.92846     -5.263296
   0.94075     -5.296402
   0.95304     -5.331645
   0.96533     -5.368731
   0.97762     -5.407356
   0.98991     -5.447185
   1.00220     -5.488007
   1.01449     -5.529562
   1.02678     -5.571669
   1.03907     -5.614065
   1.05136     -5.656625
   1.06365     -5.699131
   1.07594     -5.741456
   1.08823     -5.783515
   1.10052     -5.825066
   1.11281     -5.866017
   1.12510     -5.906270
   1.13739     -5.945689
   1.14968     -5.984161
   1.16197     -6.021602
   1.17426     -6.057923
   1.18655     -6.092993
   1.19884     -6.126739
   1.21114     -6.159090
   1.22343     -6.189970
   1.23572     -6.219300
   1.24801     -6.247048
   1.26030     -6.273122
   1.27259     -6.297450
   1.28488     -6.320042
   1.29717     -6.340817
   1.30946     -6.358964
   1.30946     -6.358964
   1.33404     -6.324311
   1.35862     -6.291358
   1.38320     -6.260082
   1.40778     -6.229988
   1.43236     -6.200467
   1.45694     -6.170915
   1.48152     -6.140725
   1.50610     -6.109468
   1.53068     -6.076847
   1.55526     -6.042769
   1.57985     -6.007410
   1.60443     -5.971225
   1.62901     -5.934956
   1.65359     -5.899694
   1.67817     -5.866873
   1.70275     -5.838197
   1.72733     -5.815509
   1.75191     -5.800409
   1.77649     -5.793934
   1.80107     -5.796322
   1.82565     -5.806896
   1.85023     -5.824425
   1.87481     -5.847325
   1.89939     -5.874125
   1.92397     -5.903420
   1.94856     -5.934036
   1.97314     -5.965009
   1.99772     -5.995590
   2.02230     -6.025092
   2.04688     -6.053040
   2.07146     -6.078942
   2.09604     -6.102534
   2.12062     -6.123429
   2.14520     -6.141436
   2.16978     -6.156386
   2.19436     -6.168215
   2.21894     -6.176737
   2.24352     -6.181872
   2.26810     -6.183452
 
# Band-Index    6
   2.26810     -4.830460
   2.24352     -4.829547
   2.21894     -4.826824
   2.19436     -4.822395
   2.16978     -4.816461
   2.14520     -4.809283
   2.12062     -4.801233
   2.09604     -4.792869
   2.07146     -4.784781
   2.04688     -4.777898
   2.02230     -4.773326
   1.99772     -4.772335
   1.97314     -4.776309
   1.94856     -4.786605
   1.92397     -4.804000
   1.89939     -4.828331
   1.87481     -4.858323
   1.85023     -4.891595
   1.82565     -4.925143
   1.80107     -4.955974
   1.77649     -4.981569
   1.75191     -5.000428
   1.72733     -5.012204
   1.70275     -5.017816
   1.67817     -5.019068
   1.65359     -5.018086
   1.62901     -5.017066
   1.60443     -5.017837
   1.57985     -5.021837
   1.55526     -5.029922
   1.53068     -5.042391
   1.50610     -5.058950
   1.48152     -5.078860
   1.45694     -5.100940
   1.43236     -5.123718
   1.40778     -5.145597
   1.38320     -5.164915
   1.35862     -5.180154
   1.33404     -5.189984
   1.30946     -5.193420
   1.30946     -5.193420
   1.29717     -5.192547
   1.28488     -5.189867
   1.27259     -5.185369
   1.26030     -5.179064
   1.24801     -5.170952
   1.23572     -5.161105
   1.22343     -5.149587
   1.21114     -5.136446
   1.19884     -5.121775
   1.18655     -5.105672
   1.17426     -5.088240
   1.16197     -5.069568
   1.14968     -5.049794
   1.13739     -5.029042
   1.12510     -5.007414
   1.11281     -4.985073
   1.10052     -4.962135
   1.08823     -4.938725
   1.07594     -4.914980
   1.06365     -4.891078
   1.05136     -4.867141
   1.03907     -4.843296
   1.02678     -4.819711
   1.01449     -4.796526
   1.00220     -4.773899
   0.98991     -4.751985
   0.97762     -4.730926
   0.96533     -4.710863
   0.95304     -4.691958
   0.94075     -4.674358
   0.92846     -4.658185
   0.91617     -4.643578
   0.90388     -4.630641
   0.89159     -4.619505
   0.87930     -4.610259
   0.86701     -4.602978
   0.85471     -4.597729
   0.84242     -4.594560
   0.83013     -4.593501
   0.83013     -4.593501
   0.80885     -4.596915
   0.78756     -4.606869
   0.76628     -4.622571
   0.74499     -4.642902
   0.72371     -4.666675
   0.70242     -4.692710
   0.68114     -4.719924
   0.65985     -4.747329
   0.63856     -4.774070
   0.61728     -4.799330
   0.59599     -4.822391
   0.57471     -4.842501
   0.55342     -4.859040
   0.53214     -4.871365
   0.51085     -4.878904
   0.48957     -4.881281
   0.46828     -4.878363
   0.44700     -4.870417
   0.42571     -4.858083
   0.40442     -4.842683
   0.38314     -4.825745
   0.36185     -4.809100
   0.34057     -4.794472
   0.31928     -4.783087
   0.29800     -4.775647
   0.27671     -4.772161
   0.25543     -4.772211
   0.23414     -4.775114
   0.21285     -4.780091
   0.19157     -4.786412
   0.17028     -4.793487
   0.14900     -4.800756
   0.12771     -4.807787
   0.10643     -4.814244
   0.08514     -4.819829
   0.06386     -4.824380
   0.04257     -4.827719
   0.02129     -4.829775
   0.00000     -4.830460
 
# Band-Index    7
   0.00000     -3.080065
   0.02129     -3.077652
   0.04257     -3.070489
   0.06386     -3.058911
   0.08514     -3.043985
   0.10643     -3.033136
   0.12771     -3.084157
   0.14900     -3.176906
   0.17028     -3.273892
   0.19157     -3.370268
   0.21285     -3.463784
   0.23414     -3.552682
   0.25543     -3.635183
   0.27671     -3.709643
   0.29800     -3.774477
   0.31928     -3.828331
   0.34057     -3.870334
   0.36185     -3.900158
   0.38314     -3.918346
   0.40442     -3.925912
   0.42571     -3.924385
   0.44700     -3.915503
   0.46828     -3.900969
   0.48957     -3.882569
   0.51085     -3.862039
   0.53214     -3.841188
   0.55342     -3.821908
   0.57471     -3.806153
   0.59599     -3.795752
   0.61728     -3.792077
   0.63856     -3.795654
   0.65985     -3.805980
   0.68114     -3.821699
   0.70242     -3.840964
   0.72371     -3.861790
   0.74499     -3.882293
   0.76628     -3.900629
   0.78756     -3.915161
   0.80885     -3.924504
   0.83013     -3.927733
   0.83013     -3.927733
   0.84242     -3.925803
   0.85471     -3.920030
   0.86701     -3.910593
   0.87930     -3.897744
   0.89159     -3.881770
   0.90388     -3.863098
   0.91617     -3.842070
   0.92846     -3.819063
   0.94075     -3.794389
   0.95304     -3.768392
   0.96533     -3.741380
   0.97762     -3.713598
   0.98991     -3.685195
   1.00220     -3.656464
   1.01449     -3.627460
   1.02678     -3.598401
   1.03907     -3.569276
   1.05136     -3.540292
   1.06365     -3.511410
   1.07594     -3.482728
   1.08823     -3.454268
   1.10052     -3.426046
   1.11281     -3.398066
   1.12510     -3.370350
   1.13739     -3.342897
   1.14968     -3.315701
   1.16197     -3.288792
   1.17426     -3.262157
   1.18655     -3.235804
   1.19884     -3.209756
   1.21114     -3.184032
